#K-Path(1/A) Energy-Level(eV)
   0.00000    -56.114078
   0.03972    -56.113976
   0.07944    -56.113674
   0.11915    -56.113180
   0.15887    -56.112505
   0.19859    -56.111704
   0.23831    -56.110780
   0.27803    -56.109749
   0.31774    -56.108633
   0.35746    -56.107465
   0.39718    -56.106275
   0.43690    -56.105096
   0.47662    -56.103960
   0.51633    -56.102897
   0.55605    -56.101940
   0.59577    -56.101118
   0.63549    -56.100450
   0.67520    -56.099959
   0.71492    -56.099656
   0.75464    -56.099556
   0.75464    -56.099556
   0.79436    -56.099541
   0.83408    -56.099502
   0.87379    -56.099436
   0.91351    -56.099347
   0.95323    -56.099235
   0.99295    -56.099105
   1.03267    -56.098960
   1.07238    -56.098804
   1.11210    -56.098640
   1.15182    -56.098476
   1.19154    -56.098314
   1.23126    -56.098158
   1.27097    -56.098014
   1.31069    -56.097885
   1.35041    -56.097772
   1.39013    -56.097705
   1.42985    -56.097667
   1.46957    -56.097644
   1.50928    -56.097636
   1.50928    -56.097636
   1.54900    -56.097650
   1.58872    -56.097690
   1.62844    -56.097757
   1.66815    -56.097847
   1.70787    -56.097959
   1.74759    -56.098088
   1.78731    -56.098233
   1.82703    -56.098389
   1.86674    -56.098551
   1.90646    -56.098715
   1.94618    -56.098879
   1.98590    -56.099035
   2.02562    -56.099180
   2.06533    -56.099311
   2.10505    -56.099422
   2.14477    -56.099511
   2.18449    -56.099577
   2.22421    -56.099616
   2.26392    -56.099631
   2.26392    -56.099631
   2.30364    -56.099732
   2.34336    -56.100035
   2.38308    -56.100527
   2.42280    -56.101196
   2.46251    -56.102020
   2.50223    -56.102979
   2.54195    -56.104043
   2.58167    -56.105181
   2.62139    -56.106362
   2.66110    -56.107555
   2.70082    -56.108725
   2.74054    -56.109842
   2.78026    -56.110875
   2.81998    -56.111801
   2.85969    -56.112592
   2.89941    -56.113229
   2.93913    -56.113697
   2.97885    -56.113982
   3.01857    -56.114078
 
# Band-Index:    2
   3.01857    -56.113977
   2.97885    -56.113875
   2.93913    -56.113574
   2.89941    -56.113080
   2.85969    -56.112406
   2.81998    -56.111569
   2.78026    -56.110590
   2.74054    -56.109497
   2.70082    -56.108314
   2.66110    -56.107075
   2.62139    -56.105812
   2.58167    -56.104560
   2.54195    -56.103354
   2.50223    -56.102226
   2.46251    -56.101210
   2.42280    -56.100335
   2.38308    -56.099625
   2.34336    -56.099103
   2.30364    -56.098781
   2.26392    -56.098674
   2.26392    -56.098674
   2.22421    -56.098665
   2.18449    -56.098644
   2.14477    -56.098607
   2.10505    -56.098558
   2.06533    -56.098496
   2.02562    -56.098424
   1.98590    -56.098343
   1.94618    -56.098256
   1.90646    -56.098165
   1.86674    -56.098074
   1.82703    -56.097983
   1.78731    -56.097895
   1.74759    -56.097815
   1.70787    -56.097743
   1.66815    -56.097680
   1.62844    -56.097630
   1.58872    -56.097593
   1.54900    -56.097570
   1.50928    -56.097562
   1.50928    -56.097562
   1.46957    -56.097576
   1.42985    -56.097616
   1.39013    -56.097682
   1.35041    -56.097755
   1.31069    -56.097818
   1.27097    -56.097889
   1.23126    -56.097970
   1.19154    -56.098057
   1.15182    -56.098148
   1.11210    -56.098239
   1.07238    -56.098331
   1.03267    -56.098418
   0.99295    -56.098498
   0.95323    -56.098571
   0.91351    -56.098633
   0.87379    -56.098682
   0.83408    -56.098719
   0.79436    -56.098740
   0.75464    -56.098748
   0.75464    -56.098748
   0.71492    -56.098856
   0.67520    -56.099179
   0.63549    -56.099701
   0.59577    -56.100413
   0.55605    -56.101289
   0.51633    -56.102307
   0.47662    -56.103437
   0.43690    -56.104645
   0.39718    -56.105899
   0.35746    -56.107165
   0.31774    -56.108406
   0.27803    -56.109590
   0.23831    -56.110685
   0.19859    -56.111666
   0.15887    -56.112494
   0.11915    -56.113130
   0.07944    -56.113596
   0.03972    -56.113881
   0.00000    -56.113977
 
# Band-Index:    3
   0.00000    -55.648805
   0.03972    -55.648896
   0.07944    -55.649168
   0.11915    -55.649613
   0.15887    -55.650223
   0.19859    -55.650981
   0.23831    -55.651867
   0.27803    -55.652861
   0.31774    -55.653934
   0.35746    -55.655058
   0.39718    -55.656205
   0.43690    -55.657343
   0.47662    -55.658441
   0.51633    -55.659466
   0.55605    -55.660390
   0.59577    -55.661189
   0.63549    -55.661835
   0.67520    -55.662311
   0.71492    -55.662601
   0.75464    -55.662700
   0.75464    -55.662700
   0.79436    -55.662685
   0.83408    -55.662643
   0.87379    -55.662574
   0.91351    -55.662480
   0.95323    -55.662363
   0.99295    -55.662227
   1.03267    -55.662075
   1.07238    -55.661911
   1.11210    -55.661739
   1.15182    -55.661568
   1.19154    -55.661397
   1.23126    -55.661234
   1.27097    -55.661082
   1.31069    -55.660947
   1.35041    -55.660829
   1.39013    -55.660735
   1.42985    -55.660665
   1.46957    -55.660623
   1.50928    -55.660608
   1.50928    -55.660608
   1.54900    -55.660617
   1.58872    -55.660640
   1.62844    -55.660678
   1.66815    -55.660750
   1.70787    -55.660868
   1.74759    -55.661003
   1.78731    -55.661155
   1.82703    -55.661318
   1.86674    -55.661488
   1.90646    -55.661660
   1.94618    -55.661831
   1.98590    -55.661995
   2.02562    -55.662147
   2.06533    -55.662283
   2.10505    -55.662400
   2.14477    -55.662494
   2.18449    -55.662563
   2.22421    -55.662605
   2.26392    -55.662620
   2.26392    -55.662620
   2.30364    -55.662521
   2.34336    -55.662232
   2.38308    -55.661756
   2.42280    -55.661112
   2.46251    -55.660315
   2.50223    -55.659393
   2.54195    -55.658370
   2.58167    -55.657275
   2.62139    -55.656139
   2.66110    -55.654994
   2.70082    -55.653872
   2.74054    -55.652801
   2.78026    -55.651809
   2.81998    -55.650924
   2.85969    -55.650169
   2.89941    -55.649560
   2.93913    -55.649144
   2.97885    -55.648890
   3.01857    -55.648805
 
# Band-Index:    4
   3.01857    -55.648753
   2.97885    -55.648844
   2.93913    -55.649115
   2.89941    -55.649559
   2.85969    -55.650128
   2.81998    -55.650834
   2.78026    -55.651659
   2.74054    -55.652585
   2.70082    -55.653585
   2.66110    -55.654632
   2.62139    -55.655700
   2.58167    -55.656759
   2.54195    -55.657780
   2.50223    -55.658734
   2.46251    -55.659594
   2.42280    -55.660336
   2.38308    -55.660935
   2.34336    -55.661378
   2.30364    -55.661648
   2.26392    -55.661739
   2.26392    -55.661739
   2.22421    -55.661730
   2.18449    -55.661709
   2.14477    -55.661671
   2.10505    -55.661621
   2.06533    -55.661558
   2.02562    -55.661484
   1.98590    -55.661402
   1.94618    -55.661314
   1.90646    -55.661221
   1.86674    -55.661129
   1.82703    -55.661037
   1.78731    -55.660947
   1.74759    -55.660866
   1.70787    -55.660793
   1.66815    -55.660729
   1.62844    -55.660656
   1.58872    -55.660586
   1.54900    -55.660544
   1.50928    -55.660529
   1.50928    -55.660529
   1.46957    -55.660538
   1.42985    -55.660561
   1.39013    -55.660599
   1.35041    -55.660650
   1.31069    -55.660714
   1.27097    -55.660787
   1.23126    -55.660868
   1.19154    -55.660957
   1.15182    -55.661050
   1.11210    -55.661142
   1.07238    -55.661234
   1.03267    -55.661323
   0.99295    -55.661405
   0.95323    -55.661478
   0.91351    -55.661541
   0.87379    -55.661592
   0.83408    -55.661630
   0.79436    -55.661651
   0.75464    -55.661659
   0.75464    -55.661659
   0.71492    -55.661568
   0.67520    -55.661300
   0.63549    -55.660858
   0.59577    -55.660260
   0.55605    -55.659519
   0.51633    -55.658661
   0.47662    -55.657709
   0.43690    -55.656690
   0.39718    -55.655633
   0.35746    -55.654568
   0.31774    -55.653523
   0.27803    -55.652526
   0.23831    -55.651602
   0.19859    -55.650778
   0.15887    -55.650073
   0.11915    -55.649506
   0.07944    -55.649091
   0.03972    -55.648838
   0.00000    -55.648753
 
# Band-Index:    5
   0.00000    -33.589123
   0.03972    -33.588870
   0.07944    -33.587909
   0.11915    -33.586143
   0.15887    -33.583588
   0.19859    -33.580266
   0.23831    -33.576210
   0.27803    -33.571469
   0.31774    -33.566088
   0.35746    -33.560133
   0.39718    -33.553684
   0.43690    -33.546842
   0.47662    -33.539732
   0.51633    -33.532523
   0.55605    -33.525431
   0.59577    -33.518744
   0.63549    -33.512812
   0.67520    -33.508078
   0.71492    -33.504986
   0.75464    -33.503909
   0.75464    -33.503909
   0.79436    -33.505359
   0.83408    -33.509651
   0.87379    -33.516494
   0.91351    -33.525500
   0.95323    -33.536231
   0.99295    -33.548252
   1.03267    -33.561147
   1.07238    -33.574527
   1.11210    -33.588022
   1.15182    -33.601297
   1.19154    -33.614026
   1.23126    -33.625915
   1.27097    -33.636699
   1.31069    -33.646134
   1.35041    -33.654009
   1.39013    -33.660148
   1.42985    -33.664413
   1.46957    -33.666713
   1.50928    -33.667157
   1.50928    -33.667157
   1.54900    -33.666685
   1.58872    -33.664353
   1.62844    -33.660057
   1.66815    -33.653888
   1.70787    -33.645986
   1.74759    -33.636526
   1.78731    -33.625720
   1.82703    -33.613812
   1.86674    -33.601066
   1.90646    -33.587779
   1.94618    -33.574272
   1.98590    -33.560884
   2.02562    -33.547982
   2.06533    -33.535955
   2.10505    -33.525218
   2.14477    -33.516206
   2.18449    -33.509354
   2.22421    -33.505053
   2.26392    -33.503592
   2.26392    -33.503592
   2.30364    -33.504673
   2.34336    -33.507763
   2.38308    -33.512491
   2.42280    -33.518413
   2.46251    -33.525090
   2.50223    -33.532172
   2.54195    -33.539373
   2.58167    -33.546477
   2.62139    -33.553317
   2.66110    -33.559767
   2.70082    -33.565730
   2.74054    -33.571125
   2.78026    -33.575888
   2.81998    -33.579975
   2.85969    -33.583339
   2.89941    -33.585948
   2.93913    -33.587779
   2.97885    -33.588816
   3.01857    -33.589123
 
# Band-Index:    6
   3.01857    -33.588535
   2.97885    -33.587979
   2.93913    -33.586412
   2.89941    -33.583909
   2.85969    -33.580494
   2.81998    -33.576173
   2.78026    -33.570960
   2.74054    -33.564878
   2.70082    -33.557952
   2.66110    -33.550221
   2.62139    -33.541737
   2.58167    -33.532562
   2.54195    -33.522772
   2.50223    -33.512474
   2.46251    -33.501811
   2.42280    -33.491001
   2.38308    -33.480389
   2.34336    -33.470658
   2.30364    -33.463146
   2.26392    -33.460136
   2.26392    -33.460136
   2.22421    -33.462990
   2.18449    -33.470665
   2.14477    -33.481532
   2.10505    -33.494437
   2.06533    -33.508679
   2.02562    -33.523792
   1.98590    -33.539414
   1.94618    -33.555228
   1.90646    -33.570928
   1.86674    -33.586235
   1.82703    -33.600868
   1.78731    -33.614561
   1.74759    -33.627076
   1.70787    -33.638183
   1.66815    -33.647687
   1.62844    -33.655420
   1.58872    -33.661252
   1.54900    -33.665081
   1.50928    -33.666677
   1.50928    -33.666677
   1.46957    -33.665045
   1.42985    -33.661175
   1.39013    -33.655304
   1.35041    -33.647532
   1.31069    -33.637994
   1.27097    -33.626854
   1.23126    -33.614311
   1.19154    -33.600592
   1.15182    -33.585938
   1.11210    -33.570613
   1.07238    -33.554898
   1.03267    -33.539075
   0.99295    -33.523446
   0.95323    -33.508329
   0.91351    -33.494086
   0.87379    -33.481183
   0.83408    -33.470322
   0.79436    -33.462661
   0.75464    -33.459830
   0.75464    -33.459830
   0.71492    -33.462818
   0.67520    -33.470307
   0.63549    -33.480018
   0.59577    -33.490611
   0.55605    -33.501406
   0.51633    -33.512058
   0.47662    -33.522348
   0.43690    -33.532134
   0.39718    -33.541309
   0.35746    -33.549799
   0.31774    -33.557541
   0.27803    -33.564487
   0.23831    -33.570596
   0.19859    -33.575848
   0.15887    -33.580217
   0.11915    -33.583692
   0.07944    -33.586267
   0.03972    -33.587917
   0.00000    -33.588535
 
# Band-Index:    7
   0.00000    -33.261260
   0.03972    -33.262762
   0.07944    -33.265347
   0.11915    -33.268988
   0.15887    -33.273645
   0.19859    -33.279275
   0.23831    -33.285825
   0.27803    -33.293244
   0.31774    -33.301454
   0.35746    -33.310391
   0.39718    -33.319969
   0.43690    -33.330101
   0.47662    -33.340698
   0.51633    -33.351638
   0.55605    -33.362795
   0.59577    -33.373974
   0.63549    -33.384835
   0.67520    -33.394729
   0.71492    -33.402314
   0.75464    -33.405337
   0.75464    -33.405337
   0.79436    -33.403643
   0.83408    -33.399377
   0.87379    -33.394061
   0.91351    -33.388704
   0.95323    -33.383804
   0.99295    -33.379566
   1.03267    -33.376060
   1.07238    -33.373272
   1.11210    -33.371148
   1.15182    -33.369611
   1.19154    -33.368567
   1.23126    -33.367915
   1.27097    -33.367560
   1.31069    -33.367403
   1.35041    -33.367354
   1.39013    -33.367337
   1.42985    -33.367286
   1.46957    -33.367157
   1.50928    -33.367006
   1.50928    -33.367006
   1.54900    -33.367180
   1.58872    -33.367338
   1.62844    -33.367414
   1.66815    -33.367452
   1.70787    -33.367517
   1.74759    -33.367687
   1.78731    -33.368051
   1.82703    -33.368709
   1.86674    -33.369757
   1.90646    -33.371295
   1.94618    -33.373420
   1.98590    -33.376208
   2.02562    -33.379715
   2.06533    -33.383953
   2.10505    -33.388856
   2.14477    -33.394216
   2.18449    -33.399540
   2.22421    -33.403820
   2.26392    -33.405539
   2.26392    -33.405539
   2.30364    -33.402494
   2.34336    -33.394881
   2.38308    -33.384958
   2.42280    -33.374068
   2.46251    -33.362861
   2.50223    -33.351681
   2.54195    -33.340721
   2.58167    -33.330110
   2.62139    -33.319967
   2.66110    -33.310384
   2.70082    -33.301443
   2.74054    -33.293231
   2.78026    -33.285812
   2.81998    -33.279264
   2.85969    -33.273636
   2.89941    -33.268982
   2.93913    -33.265344
   2.97885    -33.262762
   3.01857    -33.261260
 
# Band-Index:    8
   3.01857    -33.261253
   2.97885    -33.260846
   2.93913    -33.261543
   2.89941    -33.263347
   2.85969    -33.266243
   2.81998    -33.270208
   2.78026    -33.275202
   2.74054    -33.281177
   2.70082    -33.288050
   2.66110    -33.295734
   2.62139    -33.304099
   2.58167    -33.312991
   2.54195    -33.322216
   2.50223    -33.331513
   2.46251    -33.340584
   2.42280    -33.349054
   2.38308    -33.356467
   2.34336    -33.362319
   2.30364    -33.366097
   2.26392    -33.367414
   2.26392    -33.367414
   2.22421    -33.367103
   2.18449    -33.366235
   2.14477    -33.364981
   2.10505    -33.363573
   2.06533    -33.362223
   2.02562    -33.361091
   1.98590    -33.360284
   1.94618    -33.359844
   1.90646    -33.359773
   1.86674    -33.360040
   1.82703    -33.360587
   1.78731    -33.361343
   1.74759    -33.362235
   1.70787    -33.363187
   1.66815    -33.364127
   1.62844    -33.364998
   1.58872    -33.365751
   1.54900    -33.366349
   1.50928    -33.366667
   1.50928    -33.366667
   1.46957    -33.366383
   1.42985    -33.365825
   1.39013    -33.365107
   1.35041    -33.364267
   1.31069    -33.363353
   1.27097    -33.362422
   1.23126    -33.361547
   1.19154    -33.360803
   1.15182    -33.360266
   1.11210    -33.360005
   1.07238    -33.360080
   1.03267    -33.360521
   0.99295    -33.361327
   0.95323    -33.362455
   0.91351    -33.363801
   0.87379    -33.365202
   0.83408    -33.366447
   0.79436    -33.367305
   0.75464    -33.367603
   0.75464    -33.367603
   0.71492    -33.366287
   0.67520    -33.362499
   0.63549    -33.356628
   0.59577    -33.349192
   0.55605    -33.340697
   0.51633    -33.331603
   0.47662    -33.322284
   0.43690    -33.313042
   0.39718    -33.304137
   0.35746    -33.295762
   0.31774    -33.288071
   0.27803    -33.281192
   0.23831    -33.275213
   0.19859    -33.270216
   0.15887    -33.266249
   0.11915    -33.263352
   0.07944    -33.261547
   0.03972    -33.260849
   0.00000    -33.261253
 
# Band-Index:    9
   0.00000    -31.764126
   0.03972    -31.763998
   0.07944    -31.762960
   0.11915    -31.760793
   0.15887    -31.757489
   0.19859    -31.753058
   0.23831    -31.747518
   0.27803    -31.740910
   0.31774    -31.733267
   0.35746    -31.724655
   0.39718    -31.715147
   0.43690    -31.704841
   0.47662    -31.693857
   0.51633    -31.682357
   0.55605    -31.670557
   0.59577    -31.658777
   0.63549    -31.647505
   0.67520    -31.637602
   0.71492    -31.630454
   0.75464    -31.627783
   0.75464    -31.627783
   0.79436    -31.636041
   0.83408    -31.654670
   0.87379    -31.676458
   0.91351    -31.698627
   0.95323    -31.720200
   0.99295    -31.740733
   1.03267    -31.759982
   1.07238    -31.777790
   1.11210    -31.794054
   1.15182    -31.808709
   1.19154    -31.821711
   1.23126    -31.833038
   1.27097    -31.842687
   1.31069    -31.850659
   1.35041    -31.856959
   1.39013    -31.861603
   1.42985    -31.864608
   1.46957    -31.865995
   1.50928    -31.865952
   1.50928    -31.865952
   1.54900    -31.865996
   1.58872    -31.864602
   1.62844    -31.861590
   1.66815    -31.856939
   1.70787    -31.850631
   1.74759    -31.842652
   1.78731    -31.832995
   1.82703    -31.821660
   1.86674    -31.808650
   1.90646    -31.793986
   1.94618    -31.777713
   1.98590    -31.759893
   2.02562    -31.740629
   2.06533    -31.720077
   2.10505    -31.698474
   2.14477    -31.676256
   2.18449    -31.654385
   2.22421    -31.635630
   2.26392    -31.627307
   2.26392    -31.627307
   2.30364    -31.630000
   2.34336    -31.637200
   2.38308    -31.647162
   2.42280    -31.658482
   2.46251    -31.670299
   2.50223    -31.682125
   2.54195    -31.693646
   2.58167    -31.704645
   2.62139    -31.714965
   2.66110    -31.724486
   2.70082    -31.733112
   2.74054    -31.740769
   2.78026    -31.747394
   2.81998    -31.752951
   2.85969    -31.757402
   2.89941    -31.760728
   2.93913    -31.762917
   2.97885    -31.763979
   3.01857    -31.764126
 
# Band-Index:   10
   3.01857    -31.763345
   2.97885    -31.762323
   2.93913    -31.759897
   2.89941    -31.756294
   2.85969    -31.751561
   2.81998    -31.745725
   2.78026    -31.738822
   2.74054    -31.730904
   2.70082    -31.722026
   2.66110    -31.712268
   2.62139    -31.701724
   2.58167    -31.690512
   2.54195    -31.678778
   2.50223    -31.666698
   2.46251    -31.654501
   2.42280    -31.642487
   2.38308    -31.631046
   2.34336    -31.620788
   2.30364    -31.612827
   2.26392    -31.609521
   2.26392    -31.609521
   2.22421    -31.619171
   2.18449    -31.637631
   2.14477    -31.658503
   2.10505    -31.679993
   2.06533    -31.701253
   2.02562    -31.721819
   1.98590    -31.741408
   1.94618    -31.759833
   1.90646    -31.776959
   1.86674    -31.792700
   1.82703    -31.806989
   1.78731    -31.819778
   1.74759    -31.831042
   1.70787    -31.840756
   1.66815    -31.848905
   1.62844    -31.855482
   1.58872    -31.860479
   1.54900    -31.863887
   1.50928    -31.865525
   1.50928    -31.865525
   1.46957    -31.863894
   1.42985    -31.860485
   1.39013    -31.855487
   1.35041    -31.848911
   1.31069    -31.840762
   1.27097    -31.831048
   1.23126    -31.819786
   1.19154    -31.806998
   1.15182    -31.792711
   1.11210    -31.776970
   1.07238    -31.759845
   1.03267    -31.741421
   0.99295    -31.721830
   0.95323    -31.701259
   0.91351    -31.679986
   0.87379    -31.658471
   0.83408    -31.637550
   0.79436    -31.619016
   0.75464    -31.609316
   0.75464    -31.609316
   0.71492    -31.612604
   0.67520    -31.620559
   0.63549    -31.630835
   0.59577    -31.642301
   0.55605    -31.654337
   0.51633    -31.666551
   0.47662    -31.678643
   0.43690    -31.690388
   0.39718    -31.701608
   0.35746    -31.712160
